#  P(GPa)    T(K)     n_LS     n_HS
    0.00   4000.00  0.008008  0.991992
    0.10   4000.00  0.008008  0.991992
    0.20   4000.00  0.008008  0.991992
    0.30   4000.00  0.008008  0.991992
    0.40   4000.00  0.008008  0.991992
    0.50   4000.00  0.008008  0.991992
    0.60   4000.00  0.008008  0.991992
    0.70   4000.00  0.008008  0.991992
    0.80   4000.00  0.008008  0.991992
    0.90   4000.00  0.008008  0.991992
    1.00   4000.00  0.008008  0.991992
    1.10   4000.00  0.008008  0.991992
    1.20   4000.00  0.008008  0.991992
    1.30   4000.00  0.008008  0.991992
    1.40   4000.00  0.008008  0.991992
    1.50   4000.00  0.008008  0.991992
    1.60   4000.00  0.008008  0.991992
    1.70   4000.00  0.008008  0.991992
    1.80   4000.00  0.008008  0.991992
    1.90   4000.00  0.008008  0.991992
    2.00   4000.00  0.008008  0.991992
    2.10   4000.00  0.008008  0.991992
    2.20   4000.00  0.008008  0.991992
    2.30   4000.00  0.008008  0.991992
    2.40   4000.00  0.008008  0.991992
    2.50   4000.00  0.008008  0.991992
    2.60   4000.00  0.008008  0.991992
    2.70   4000.00  0.008008  0.991992
    2.80   4000.00  0.008008  0.991992
    2.90   4000.00  0.008008  0.991992
    3.00   4000.00  0.008008  0.991992
    3.10   4000.00  0.008008  0.991992
    3.20   4000.00  0.008008  0.991992
    3.30   4000.00  0.008008  0.991992
    3.40   4000.00  0.008008  0.991992
    3.50   4000.00  0.008008  0.991992
    3.60   4000.00  0.008008  0.991992
    3.70   4000.00  0.008008  0.991992
    3.80   4000.00  0.008008  0.991992
    3.90   4000.00  0.008008  0.991992
    4.00   4000.00  0.008008  0.991992
    4.10   4000.00  0.008008  0.991992
    4.20   4000.00  0.008008  0.991992
    4.30   4000.00  0.008008  0.991992
    4.40   4000.00  0.008008  0.991992
    4.50   4000.00  0.008008  0.991992
    4.60   4000.00  0.008008  0.991992
    4.70   4000.00  0.008008  0.991992
    4.80   4000.00  0.008008  0.991992
    4.90   4000.00  0.008008  0.991992
    5.00   4000.00  0.008008  0.991992
    5.10   4000.00  0.008008  0.991992
    5.20   4000.00  0.008008  0.991992
    5.30   4000.00  0.008008  0.991992
    5.40   4000.00  0.008008  0.991992
    5.50   4000.00  0.008008  0.991992
    5.60   4000.00  0.008008  0.991992
    5.70   4000.00  0.008008  0.991992
    5.80   4000.00  0.008008  0.991992
    5.90   4000.00  0.008008  0.991992
    6.00   4000.00  0.008008  0.991992
    6.10   4000.00  0.008008  0.991992
    6.20   4000.00  0.008008  0.991992
    6.30   4000.00  0.008008  0.991992
    6.40   4000.00  0.008008  0.991992
    6.50   4000.00  0.008008  0.991992
    6.60   4000.00  0.008008  0.991992
    6.70   4000.00  0.008008  0.991992
    6.80   4000.00  0.008008  0.991992
    6.90   4000.00  0.008008  0.991992
    7.00   4000.00  0.008008  0.991992
    7.10   4000.00  0.008008  0.991992
    7.20   4000.00  0.008008  0.991992
    7.30   4000.00  0.008008  0.991992
    7.40   4000.00  0.008008  0.991992
    7.50   4000.00  0.008008  0.991992
    7.60   4000.00  0.009009  0.990991
    7.70   4000.00  0.009009  0.990991
    7.80   4000.00  0.009009  0.990991
    7.90   4000.00  0.009009  0.990991
    8.00   4000.00  0.009009  0.990991
    8.10   4000.00  0.009009  0.990991
    8.20   4000.00  0.009009  0.990991
    8.30   4000.00  0.009009  0.990991
    8.40   4000.00  0.009009  0.990991
    8.50   4000.00  0.009009  0.990991
    8.60   4000.00  0.009009  0.990991
    8.70   4000.00  0.009009  0.990991
    8.80   4000.00  0.009009  0.990991
    8.90   4000.00  0.009009  0.990991
    9.00   4000.00  0.009009  0.990991
    9.10   4000.00  0.009009  0.990991
    9.20   4000.00  0.009009  0.990991
    9.30   4000.00  0.009009  0.990991
    9.40   4000.00  0.009009  0.990991
    9.50   4000.00  0.009009  0.990991
    9.60   4000.00  0.009009  0.990991
    9.70   4000.00  0.009009  0.990991
    9.80   4000.00  0.009009  0.990991
    9.90   4000.00  0.009009  0.990991
   10.00   4000.00  0.009009  0.990991
   10.10   4000.00  0.009009  0.990991
   10.20   4000.00  0.009009  0.990991
   10.30   4000.00  0.009009  0.990991
   10.40   4000.00  0.009009  0.990991
   10.50   4000.00  0.009009  0.990991
   10.60   4000.00  0.009009  0.990991
   10.70   4000.00  0.009009  0.990991
   10.80   4000.00  0.009009  0.990991
   10.90   4000.00  0.009009  0.990991
   11.00   4000.00  0.009009  0.990991
   11.10   4000.00  0.009009  0.990991
   11.20   4000.00  0.009009  0.990991
   11.30   4000.00  0.009009  0.990991
   11.40   4000.00  0.009009  0.990991
   11.50   4000.00  0.009009  0.990991
   11.60   4000.00  0.009009  0.990991
   11.70   4000.00  0.009009  0.990991
   11.80   4000.00  0.009009  0.990991
   11.90   4000.00  0.009009  0.990991
   12.00   4000.00  0.009009  0.990991
   12.10   4000.00  0.009009  0.990991
   12.20   4000.00  0.009009  0.990991
   12.30   4000.00  0.009009  0.990991
   12.40   4000.00  0.009009  0.990991
   12.50   4000.00  0.009009  0.990991
   12.60   4000.00  0.009009  0.990991
   12.70   4000.00  0.009009  0.990991
   12.80   4000.00  0.009009  0.990991
   12.90   4000.00  0.009009  0.990991
   13.00   4000.00  0.009009  0.990991
   13.10   4000.00  0.009009  0.990991
   13.20   4000.00  0.009009  0.990991
   13.30   4000.00  0.009009  0.990991
   13.40   4000.00  0.009009  0.990991
   13.50   4000.00  0.009009  0.990991
   13.60   4000.00  0.009009  0.990991
   13.70   4000.00  0.009009  0.990991
   13.80   4000.00  0.009009  0.990991
   13.90   4000.00  0.009009  0.990991
   14.00   4000.00  0.009009  0.990991
   14.10   4000.00  0.009009  0.990991
   14.20   4000.00  0.009009  0.990991
   14.30   4000.00  0.009009  0.990991
   14.40   4000.00  0.009009  0.990991
   14.50   4000.00  0.009009  0.990991
   14.60   4000.00  0.009009  0.990991
   14.70   4000.00  0.010010  0.989990
   14.80   4000.00  0.010010  0.989990
   14.90   4000.00  0.010010  0.989990
   15.00   4000.00  0.010010  0.989990
   15.10   4000.00  0.010010  0.989990
   15.20   4000.00  0.010010  0.989990
   15.30   4000.00  0.010010  0.989990
   15.40   4000.00  0.010010  0.989990
   15.50   4000.00  0.010010  0.989990
   15.60   4000.00  0.010010  0.989990
   15.70   4000.00  0.010010  0.989990
   15.80   4000.00  0.010010  0.989990
   15.90   4000.00  0.010010  0.989990
   16.00   4000.00  0.010010  0.989990
   16.10   4000.00  0.010010  0.989990
   16.20   4000.00  0.010010  0.989990
   16.30   4000.00  0.010010  0.989990
   16.40   4000.00  0.010010  0.989990
   16.50   4000.00  0.010010  0.989990
   16.60   4000.00  0.010010  0.989990
   16.70   4000.00  0.010010  0.989990
   16.80   4000.00  0.010010  0.989990
   16.90   4000.00  0.010010  0.989990
   17.00   4000.00  0.010010  0.989990
   17.10   4000.00  0.010010  0.989990
   17.20   4000.00  0.010010  0.989990
   17.30   4000.00  0.010010  0.989990
   17.40   4000.00  0.010010  0.989990
   17.50   4000.00  0.010010  0.989990
   17.60   4000.00  0.010010  0.989990
   17.70   4000.00  0.010010  0.989990
   17.80   4000.00  0.010010  0.989990
   17.90   4000.00  0.010010  0.989990
   18.00   4000.00  0.010010  0.989990
   18.10   4000.00  0.010010  0.989990
   18.20   4000.00  0.010010  0.989990
   18.30   4000.00  0.010010  0.989990
   18.40   4000.00  0.010010  0.989990
   18.50   4000.00  0.010010  0.989990
   18.60   4000.00  0.010010  0.989990
   18.70   4000.00  0.010010  0.989990
   18.80   4000.00  0.010010  0.989990
   18.90   4000.00  0.010010  0.989990
   19.00   4000.00  0.010010  0.989990
   19.10   4000.00  0.010010  0.989990
   19.20   4000.00  0.010010  0.989990
   19.30   4000.00  0.010010  0.989990
   19.40   4000.00  0.010010  0.989990
   19.50   4000.00  0.010010  0.989990
   19.60   4000.00  0.010010  0.989990
   19.70   4000.00  0.011011  0.988989
   19.80   4000.00  0.011011  0.988989
   19.90   4000.00  0.011011  0.988989
   20.00   4000.00  0.011011  0.988989
   20.10   4000.00  0.011011  0.988989
   20.20   4000.00  0.011011  0.988989
   20.30   4000.00  0.011011  0.988989
   20.40   4000.00  0.011011  0.988989
   20.50   4000.00  0.011011  0.988989
   20.60   4000.00  0.011011  0.988989
   20.70   4000.00  0.011011  0.988989
   20.80   4000.00  0.011011  0.988989
   20.90   4000.00  0.011011  0.988989
   21.00   4000.00  0.011011  0.988989
   21.10   4000.00  0.011011  0.988989
   21.20   4000.00  0.011011  0.988989
   21.30   4000.00  0.011011  0.988989
   21.40   4000.00  0.011011  0.988989
   21.50   4000.00  0.011011  0.988989
   21.60   4000.00  0.011011  0.988989
   21.70   4000.00  0.011011  0.988989
   21.80   4000.00  0.011011  0.988989
   21.90   4000.00  0.011011  0.988989
   22.00   4000.00  0.011011  0.988989
   22.10   4000.00  0.011011  0.988989
   22.20   4000.00  0.011011  0.988989
   22.30   4000.00  0.011011  0.988989
   22.40   4000.00  0.011011  0.988989
   22.50   4000.00  0.011011  0.988989
   22.60   4000.00  0.011011  0.988989
   22.70   4000.00  0.011011  0.988989
   22.80   4000.00  0.011011  0.988989
   22.90   4000.00  0.011011  0.988989
   23.00   4000.00  0.011011  0.988989
   23.10   4000.00  0.011011  0.988989
   23.20   4000.00  0.011011  0.988989
   23.30   4000.00  0.011011  0.988989
   23.40   4000.00  0.011011  0.988989
   23.50   4000.00  0.011011  0.988989
   23.60   4000.00  0.012012  0.987988
   23.70   4000.00  0.012012  0.987988
   23.80   4000.00  0.012012  0.987988
   23.90   4000.00  0.012012  0.987988
   24.00   4000.00  0.012012  0.987988
   24.10   4000.00  0.012012  0.987988
   24.20   4000.00  0.012012  0.987988
   24.30   4000.00  0.012012  0.987988
   24.40   4000.00  0.012012  0.987988
   24.50   4000.00  0.012012  0.987988
   24.60   4000.00  0.012012  0.987988
   24.70   4000.00  0.012012  0.987988
   24.80   4000.00  0.012012  0.987988
   24.90   4000.00  0.012012  0.987988
   25.00   4000.00  0.012012  0.987988
   25.10   4000.00  0.012012  0.987988
   25.20   4000.00  0.012012  0.987988
   25.30   4000.00  0.012012  0.987988
   25.40   4000.00  0.012012  0.987988
   25.50   4000.00  0.012012  0.987988
   25.60   4000.00  0.012012  0.987988
   25.70   4000.00  0.012012  0.987988
   25.80   4000.00  0.012012  0.987988
   25.90   4000.00  0.012012  0.987988
   26.00   4000.00  0.012012  0.987988
   26.10   4000.00  0.012012  0.987988
   26.20   4000.00  0.012012  0.987988
   26.30   4000.00  0.012012  0.987988
   26.40   4000.00  0.012012  0.987988
   26.50   4000.00  0.012012  0.987988
   26.60   4000.00  0.012012  0.987988
   26.70   4000.00  0.012012  0.987988
   26.80   4000.00  0.012012  0.987988
   26.90   4000.00  0.013013  0.986987
   27.00   4000.00  0.013013  0.986987
   27.10   4000.00  0.013013  0.986987
   27.20   4000.00  0.013013  0.986987
   27.30   4000.00  0.013013  0.986987
   27.40   4000.00  0.013013  0.986987
   27.50   4000.00  0.013013  0.986987
   27.60   4000.00  0.013013  0.986987
   27.70   4000.00  0.013013  0.986987
   27.80   4000.00  0.013013  0.986987
   27.90   4000.00  0.013013  0.986987
   28.00   4000.00  0.013013  0.986987
   28.10   4000.00  0.013013  0.986987
   28.20   4000.00  0.013013  0.986987
   28.30   4000.00  0.013013  0.986987
   28.40   4000.00  0.013013  0.986987
   28.50   4000.00  0.013013  0.986987
   28.60   4000.00  0.013013  0.986987
   28.70   4000.00  0.013013  0.986987
   28.80   4000.00  0.013013  0.986987
   28.90   4000.00  0.013013  0.986987
   29.00   4000.00  0.013013  0.986987
   29.10   4000.00  0.013013  0.986987
   29.20   4000.00  0.013013  0.986987
   29.30   4000.00  0.013013  0.986987
   29.40   4000.00  0.013013  0.986987
   29.50   4000.00  0.013013  0.986987
   29.60   4000.00  0.013013  0.986987
   29.70   4000.00  0.014014  0.985986
   29.80   4000.00  0.014014  0.985986
   29.90   4000.00  0.014014  0.985986
   30.00   4000.00  0.014014  0.985986
   30.10   4000.00  0.014014  0.985986
   30.20   4000.00  0.014014  0.985986
   30.30   4000.00  0.014014  0.985986
   30.40   4000.00  0.014014  0.985986
   30.50   4000.00  0.014014  0.985986
   30.60   4000.00  0.014014  0.985986
   30.70   4000.00  0.014014  0.985986
   30.80   4000.00  0.014014  0.985986
   30.90   4000.00  0.014014  0.985986
   31.00   4000.00  0.014014  0.985986
   31.10   4000.00  0.014014  0.985986
   31.20   4000.00  0.014014  0.985986
   31.30   4000.00  0.014014  0.985986
   31.40   4000.00  0.014014  0.985986
   31.50   4000.00  0.014014  0.985986
   31.60   4000.00  0.014014  0.985986
   31.70   4000.00  0.014014  0.985986
   31.80   4000.00  0.014014  0.985986
   31.90   4000.00  0.014014  0.985986
   32.00   4000.00  0.014014  0.985986
   32.10   4000.00  0.014014  0.985986
   32.20   4000.00  0.015015  0.984985
   32.30   4000.00  0.015015  0.984985
   32.40   4000.00  0.015015  0.984985
   32.50   4000.00  0.015015  0.984985
   32.60   4000.00  0.015015  0.984985
   32.70   4000.00  0.015015  0.984985
   32.80   4000.00  0.015015  0.984985
   32.90   4000.00  0.015015  0.984985
   33.00   4000.00  0.015015  0.984985
   33.10   4000.00  0.015015  0.984985
   33.20   4000.00  0.015015  0.984985
   33.30   4000.00  0.015015  0.984985
   33.40   4000.00  0.015015  0.984985
   33.50   4000.00  0.015015  0.984985
   33.60   4000.00  0.015015  0.984985
   33.70   4000.00  0.015015  0.984985
   33.80   4000.00  0.015015  0.984985
   33.90   4000.00  0.015015  0.984985
   34.00   4000.00  0.015015  0.984985
   34.10   4000.00  0.015015  0.984985
   34.20   4000.00  0.015015  0.984985
   34.30   4000.00  0.015015  0.984985
   34.40   4000.00  0.015015  0.984985
   34.50   4000.00  0.016016  0.983984
   34.60   4000.00  0.016016  0.983984
   34.70   4000.00  0.016016  0.983984
   34.80   4000.00  0.016016  0.983984
   34.90   4000.00  0.016016  0.983984
   35.00   4000.00  0.016016  0.983984
   35.10   4000.00  0.016016  0.983984
   35.20   4000.00  0.016016  0.983984
   35.30   4000.00  0.016016  0.983984
   35.40   4000.00  0.016016  0.983984
   35.50   4000.00  0.016016  0.983984
   35.60   4000.00  0.016016  0.983984
   35.70   4000.00  0.016016  0.983984
   35.80   4000.00  0.016016  0.983984
   35.90   4000.00  0.016016  0.983984
   36.00   4000.00  0.016016  0.983984
   36.10   4000.00  0.016016  0.983984
   36.20   4000.00  0.016016  0.983984
   36.30   4000.00  0.016016  0.983984
   36.40   4000.00  0.016016  0.983984
   36.50   4000.00  0.017017  0.982983
   36.60   4000.00  0.017017  0.982983
   36.70   4000.00  0.017017  0.982983
   36.80   4000.00  0.017017  0.982983
   36.90   4000.00  0.017017  0.982983
   37.00   4000.00  0.017017  0.982983
   37.10   4000.00  0.017017  0.982983
   37.20   4000.00  0.017017  0.982983
   37.30   4000.00  0.017017  0.982983
   37.40   4000.00  0.017017  0.982983
   37.50   4000.00  0.017017  0.982983
   37.60   4000.00  0.017017  0.982983
   37.70   4000.00  0.017017  0.982983
   37.80   4000.00  0.017017  0.982983
   37.90   4000.00  0.017017  0.982983
   38.00   4000.00  0.017017  0.982983
   38.10   4000.00  0.017017  0.982983
   38.20   4000.00  0.017017  0.982983
   38.30   4000.00  0.017017  0.982983
   38.40   4000.00  0.018018  0.981982
   38.50   4000.00  0.018018  0.981982
   38.60   4000.00  0.018018  0.981982
   38.70   4000.00  0.018018  0.981982
   38.80   4000.00  0.018018  0.981982
   38.90   4000.00  0.018018  0.981982
   39.00   4000.00  0.018018  0.981982
   39.10   4000.00  0.018018  0.981982
   39.20   4000.00  0.018018  0.981982
   39.30   4000.00  0.018018  0.981982
   39.40   4000.00  0.018018  0.981982
   39.50   4000.00  0.018018  0.981982
   39.60   4000.00  0.018018  0.981982
   39.70   4000.00  0.018018  0.981982
   39.80   4000.00  0.018018  0.981982
   39.90   4000.00  0.018018  0.981982
   40.00   4000.00  0.018018  0.981982
   40.10   4000.00  0.019019  0.980981
   40.20   4000.00  0.019019  0.980981
   40.30   4000.00  0.019019  0.980981
   40.40   4000.00  0.019019  0.980981
   40.50   4000.00  0.019019  0.980981
   40.60   4000.00  0.019019  0.980981
   40.70   4000.00  0.019019  0.980981
   40.80   4000.00  0.019019  0.980981
   40.90   4000.00  0.019019  0.980981
   41.00   4000.00  0.019019  0.980981
   41.10   4000.00  0.019019  0.980981
   41.20   4000.00  0.019019  0.980981
   41.30   4000.00  0.019019  0.980981
   41.40   4000.00  0.019019  0.980981
   41.50   4000.00  0.019019  0.980981
   41.60   4000.00  0.019019  0.980981
   41.70   4000.00  0.020020  0.979980
   41.80   4000.00  0.020020  0.979980
   41.90   4000.00  0.020020  0.979980
   42.00   4000.00  0.020020  0.979980
   42.10   4000.00  0.020020  0.979980
   42.20   4000.00  0.020020  0.979980
   42.30   4000.00  0.020020  0.979980
   42.40   4000.00  0.020020  0.979980
   42.50   4000.00  0.020020  0.979980
   42.60   4000.00  0.020020  0.979980
   42.70   4000.00  0.020020  0.979980
   42.80   4000.00  0.020020  0.979980
   42.90   4000.00  0.020020  0.979980
   43.00   4000.00  0.020020  0.979980
   43.10   4000.00  0.020020  0.979980
   43.20   4000.00  0.021021  0.978979
   43.30   4000.00  0.021021  0.978979
   43.40   4000.00  0.021021  0.978979
   43.50   4000.00  0.021021  0.978979
   43.60   4000.00  0.021021  0.978979
   43.70   4000.00  0.021021  0.978979
   43.80   4000.00  0.021021  0.978979
   43.90   4000.00  0.021021  0.978979
   44.00   4000.00  0.021021  0.978979
   44.10   4000.00  0.021021  0.978979
   44.20   4000.00  0.021021  0.978979
   44.30   4000.00  0.021021  0.978979
   44.40   4000.00  0.021021  0.978979
   44.50   4000.00  0.021021  0.978979
   44.60   4000.00  0.022022  0.977978
   44.70   4000.00  0.022022  0.977978
   44.80   4000.00  0.022022  0.977978
   44.90   4000.00  0.022022  0.977978
   45.00   4000.00  0.022022  0.977978
   45.10   4000.00  0.022022  0.977978
   45.20   4000.00  0.022022  0.977978
   45.30   4000.00  0.022022  0.977978
   45.40   4000.00  0.022022  0.977978
   45.50   4000.00  0.022022  0.977978
   45.60   4000.00  0.022022  0.977978
   45.70   4000.00  0.022022  0.977978
   45.80   4000.00  0.022022  0.977978
   45.90   4000.00  0.023023  0.976977
   46.00   4000.00  0.023023  0.976977
   46.10   4000.00  0.023023  0.976977
   46.20   4000.00  0.023023  0.976977
   46.30   4000.00  0.023023  0.976977
   46.40   4000.00  0.023023  0.976977
   46.50   4000.00  0.023023  0.976977
   46.60   4000.00  0.023023  0.976977
   46.70   4000.00  0.023023  0.976977
   46.80   4000.00  0.023023  0.976977
   46.90   4000.00  0.023023  0.976977
   47.00   4000.00  0.023023  0.976977
   47.10   4000.00  0.023023  0.976977
   47.20   4000.00  0.024024  0.975976
   47.30   4000.00  0.024024  0.975976
   47.40   4000.00  0.024024  0.975976
   47.50   4000.00  0.024024  0.975976
   47.60   4000.00  0.024024  0.975976
   47.70   4000.00  0.024024  0.975976
   47.80   4000.00  0.024024  0.975976
   47.90   4000.00  0.024024  0.975976
   48.00   4000.00  0.024024  0.975976
   48.10   4000.00  0.024024  0.975976
   48.20   4000.00  0.024024  0.975976
   48.30   4000.00  0.025025  0.974975
   48.40   4000.00  0.025025  0.974975
   48.50   4000.00  0.025025  0.974975
   48.60   4000.00  0.025025  0.974975
   48.70   4000.00  0.025025  0.974975
   48.80   4000.00  0.025025  0.974975
   48.90   4000.00  0.025025  0.974975
   49.00   4000.00  0.025025  0.974975
   49.10   4000.00  0.025025  0.974975
   49.20   4000.00  0.025025  0.974975
   49.30   4000.00  0.025025  0.974975
   49.40   4000.00  0.026026  0.973974
   49.50   4000.00  0.026026  0.973974
   49.60   4000.00  0.026026  0.973974
   49.70   4000.00  0.026026  0.973974
   49.80   4000.00  0.026026  0.973974
   49.90   4000.00  0.026026  0.973974
   50.00   4000.00  0.026026  0.973974
   50.10   4000.00  0.026026  0.973974
   50.20   4000.00  0.026026  0.973974
   50.30   4000.00  0.026026  0.973974
   50.40   4000.00  0.026026  0.973974
   50.50   4000.00  0.027027  0.972973
   50.60   4000.00  0.027027  0.972973
   50.70   4000.00  0.027027  0.972973
   50.80   4000.00  0.027027  0.972973
   50.90   4000.00  0.027027  0.972973
   51.00   4000.00  0.027027  0.972973
