#  P(GPa)    T(K)     n_LS     n_HS
    0.00   4000.00  0.030030  0.969970
    0.10   4000.00  0.030030  0.969970
    0.20   4000.00  0.030030  0.969970
    0.30   4000.00  0.029029  0.970971
    0.40   4000.00  0.029029  0.970971
    0.50   4000.00  0.029029  0.970971
    0.60   4000.00  0.029029  0.970971
    0.70   4000.00  0.029029  0.970971
    0.80   4000.00  0.029029  0.970971
    0.90   4000.00  0.029029  0.970971
    1.00   4000.00  0.029029  0.970971
    1.10   4000.00  0.029029  0.970971
    1.20   4000.00  0.029029  0.970971
    1.30   4000.00  0.029029  0.970971
    1.40   4000.00  0.029029  0.970971
    1.50   4000.00  0.029029  0.970971
    1.60   4000.00  0.029029  0.970971
    1.70   4000.00  0.029029  0.970971
    1.80   4000.00  0.029029  0.970971
    1.90   4000.00  0.029029  0.970971
    2.00   4000.00  0.029029  0.970971
    2.10   4000.00  0.029029  0.970971
    2.20   4000.00  0.029029  0.970971
    2.30   4000.00  0.029029  0.970971
    2.40   4000.00  0.029029  0.970971
    2.50   4000.00  0.029029  0.970971
    2.60   4000.00  0.029029  0.970971
    2.70   4000.00  0.029029  0.970971
    2.80   4000.00  0.029029  0.970971
    2.90   4000.00  0.029029  0.970971
    3.00   4000.00  0.029029  0.970971
    3.10   4000.00  0.029029  0.970971
    3.20   4000.00  0.029029  0.970971
    3.30   4000.00  0.029029  0.970971
    3.40   4000.00  0.029029  0.970971
    3.50   4000.00  0.029029  0.970971
    3.60   4000.00  0.029029  0.970971
    3.70   4000.00  0.029029  0.970971
    3.80   4000.00  0.030030  0.969970
    3.90   4000.00  0.030030  0.969970
    4.00   4000.00  0.030030  0.969970
    4.10   4000.00  0.030030  0.969970
    4.20   4000.00  0.030030  0.969970
    4.30   4000.00  0.030030  0.969970
    4.40   4000.00  0.030030  0.969970
    4.50   4000.00  0.030030  0.969970
    4.60   4000.00  0.030030  0.969970
    4.70   4000.00  0.030030  0.969970
    4.80   4000.00  0.030030  0.969970
    4.90   4000.00  0.030030  0.969970
    5.00   4000.00  0.030030  0.969970
    5.10   4000.00  0.030030  0.969970
    5.20   4000.00  0.030030  0.969970
    5.30   4000.00  0.030030  0.969970
    5.40   4000.00  0.030030  0.969970
    5.50   4000.00  0.030030  0.969970
    5.60   4000.00  0.030030  0.969970
    5.70   4000.00  0.030030  0.969970
    5.80   4000.00  0.030030  0.969970
    5.90   4000.00  0.030030  0.969970
    6.00   4000.00  0.030030  0.969970
    6.10   4000.00  0.030030  0.969970
    6.20   4000.00  0.030030  0.969970
    6.30   4000.00  0.030030  0.969970
    6.40   4000.00  0.030030  0.969970
    6.50   4000.00  0.030030  0.969970
    6.60   4000.00  0.030030  0.969970
    6.70   4000.00  0.030030  0.969970
    6.80   4000.00  0.030030  0.969970
    6.90   4000.00  0.030030  0.969970
    7.00   4000.00  0.030030  0.969970
    7.10   4000.00  0.030030  0.969970
    7.20   4000.00  0.030030  0.969970
    7.30   4000.00  0.030030  0.969970
    7.40   4000.00  0.030030  0.969970
    7.50   4000.00  0.030030  0.969970
    7.60   4000.00  0.030030  0.969970
    7.70   4000.00  0.030030  0.969970
    7.80   4000.00  0.030030  0.969970
    7.90   4000.00  0.030030  0.969970
    8.00   4000.00  0.030030  0.969970
    8.10   4000.00  0.030030  0.969970
    8.20   4000.00  0.031031  0.968969
    8.30   4000.00  0.031031  0.968969
    8.40   4000.00  0.031031  0.968969
    8.50   4000.00  0.031031  0.968969
    8.60   4000.00  0.031031  0.968969
    8.70   4000.00  0.031031  0.968969
    8.80   4000.00  0.031031  0.968969
    8.90   4000.00  0.031031  0.968969
    9.00   4000.00  0.031031  0.968969
    9.10   4000.00  0.031031  0.968969
    9.20   4000.00  0.031031  0.968969
    9.30   4000.00  0.031031  0.968969
    9.40   4000.00  0.031031  0.968969
    9.50   4000.00  0.031031  0.968969
    9.60   4000.00  0.031031  0.968969
    9.70   4000.00  0.031031  0.968969
    9.80   4000.00  0.031031  0.968969
    9.90   4000.00  0.031031  0.968969
   10.00   4000.00  0.031031  0.968969
   10.10   4000.00  0.031031  0.968969
   10.20   4000.00  0.031031  0.968969
   10.30   4000.00  0.031031  0.968969
   10.40   4000.00  0.031031  0.968969
   10.50   4000.00  0.031031  0.968969
   10.60   4000.00  0.031031  0.968969
   10.70   4000.00  0.031031  0.968969
   10.80   4000.00  0.031031  0.968969
   10.90   4000.00  0.032032  0.967968
   11.00   4000.00  0.032032  0.967968
   11.10   4000.00  0.032032  0.967968
   11.20   4000.00  0.032032  0.967968
   11.30   4000.00  0.032032  0.967968
   11.40   4000.00  0.032032  0.967968
   11.50   4000.00  0.032032  0.967968
   11.60   4000.00  0.032032  0.967968
   11.70   4000.00  0.032032  0.967968
   11.80   4000.00  0.032032  0.967968
   11.90   4000.00  0.032032  0.967968
   12.00   4000.00  0.032032  0.967968
   12.10   4000.00  0.032032  0.967968
   12.20   4000.00  0.032032  0.967968
   12.30   4000.00  0.032032  0.967968
   12.40   4000.00  0.032032  0.967968
   12.50   4000.00  0.032032  0.967968
   12.60   4000.00  0.032032  0.967968
   12.70   4000.00  0.032032  0.967968
   12.80   4000.00  0.032032  0.967968
   12.90   4000.00  0.032032  0.967968
   13.00   4000.00  0.032032  0.967968
   13.10   4000.00  0.033033  0.966967
   13.20   4000.00  0.033033  0.966967
   13.30   4000.00  0.033033  0.966967
   13.40   4000.00  0.033033  0.966967
   13.50   4000.00  0.033033  0.966967
   13.60   4000.00  0.033033  0.966967
   13.70   4000.00  0.033033  0.966967
   13.80   4000.00  0.033033  0.966967
   13.90   4000.00  0.033033  0.966967
   14.00   4000.00  0.033033  0.966967
   14.10   4000.00  0.033033  0.966967
   14.20   4000.00  0.033033  0.966967
   14.30   4000.00  0.033033  0.966967
   14.40   4000.00  0.033033  0.966967
   14.50   4000.00  0.033033  0.966967
   14.60   4000.00  0.033033  0.966967
   14.70   4000.00  0.033033  0.966967
   14.80   4000.00  0.033033  0.966967
   14.90   4000.00  0.033033  0.966967
   15.00   4000.00  0.034034  0.965966
   15.10   4000.00  0.034034  0.965966
   15.20   4000.00  0.034034  0.965966
   15.30   4000.00  0.034034  0.965966
   15.40   4000.00  0.034034  0.965966
   15.50   4000.00  0.034034  0.965966
   15.60   4000.00  0.034034  0.965966
   15.70   4000.00  0.034034  0.965966
   15.80   4000.00  0.034034  0.965966
   15.90   4000.00  0.034034  0.965966
   16.00   4000.00  0.034034  0.965966
   16.10   4000.00  0.034034  0.965966
   16.20   4000.00  0.034034  0.965966
   16.30   4000.00  0.034034  0.965966
   16.40   4000.00  0.034034  0.965966
   16.50   4000.00  0.034034  0.965966
   16.60   4000.00  0.034034  0.965966
   16.70   4000.00  0.035035  0.964965
   16.80   4000.00  0.035035  0.964965
   16.90   4000.00  0.035035  0.964965
   17.00   4000.00  0.035035  0.964965
   17.10   4000.00  0.035035  0.964965
   17.20   4000.00  0.035035  0.964965
   17.30   4000.00  0.035035  0.964965
   17.40   4000.00  0.035035  0.964965
   17.50   4000.00  0.035035  0.964965
   17.60   4000.00  0.035035  0.964965
   17.70   4000.00  0.035035  0.964965
   17.80   4000.00  0.035035  0.964965
   17.90   4000.00  0.035035  0.964965
   18.00   4000.00  0.035035  0.964965
   18.10   4000.00  0.035035  0.964965
   18.20   4000.00  0.035035  0.964965
   18.30   4000.00  0.036036  0.963964
   18.40   4000.00  0.036036  0.963964
   18.50   4000.00  0.036036  0.963964
   18.60   4000.00  0.036036  0.963964
   18.70   4000.00  0.036036  0.963964
   18.80   4000.00  0.036036  0.963964
   18.90   4000.00  0.036036  0.963964
   19.00   4000.00  0.036036  0.963964
   19.10   4000.00  0.036036  0.963964
   19.20   4000.00  0.036036  0.963964
   19.30   4000.00  0.036036  0.963964
   19.40   4000.00  0.036036  0.963964
   19.50   4000.00  0.036036  0.963964
   19.60   4000.00  0.036036  0.963964
   19.70   4000.00  0.037037  0.962963
   19.80   4000.00  0.037037  0.962963
   19.90   4000.00  0.037037  0.962963
   20.00   4000.00  0.037037  0.962963
   20.10   4000.00  0.037037  0.962963
   20.20   4000.00  0.037037  0.962963
   20.30   4000.00  0.037037  0.962963
   20.40   4000.00  0.037037  0.962963
   20.50   4000.00  0.037037  0.962963
   20.60   4000.00  0.037037  0.962963
   20.70   4000.00  0.037037  0.962963
   20.80   4000.00  0.037037  0.962963
   20.90   4000.00  0.037037  0.962963
   21.00   4000.00  0.038038  0.961962
   21.10   4000.00  0.038038  0.961962
   21.20   4000.00  0.038038  0.961962
   21.30   4000.00  0.038038  0.961962
   21.40   4000.00  0.038038  0.961962
   21.50   4000.00  0.038038  0.961962
   21.60   4000.00  0.038038  0.961962
   21.70   4000.00  0.038038  0.961962
   21.80   4000.00  0.038038  0.961962
   21.90   4000.00  0.038038  0.961962
   22.00   4000.00  0.038038  0.961962
   22.10   4000.00  0.038038  0.961962
   22.20   4000.00  0.039039  0.960961
   22.30   4000.00  0.039039  0.960961
   22.40   4000.00  0.039039  0.960961
   22.50   4000.00  0.039039  0.960961
   22.60   4000.00  0.039039  0.960961
   22.70   4000.00  0.039039  0.960961
   22.80   4000.00  0.039039  0.960961
   22.90   4000.00  0.039039  0.960961
   23.00   4000.00  0.039039  0.960961
   23.10   4000.00  0.039039  0.960961
   23.20   4000.00  0.039039  0.960961
   23.30   4000.00  0.039039  0.960961
   23.40   4000.00  0.040040  0.959960
   23.50   4000.00  0.040040  0.959960
   23.60   4000.00  0.040040  0.959960
   23.70   4000.00  0.040040  0.959960
   23.80   4000.00  0.040040  0.959960
   23.90   4000.00  0.040040  0.959960
   24.00   4000.00  0.040040  0.959960
   24.10   4000.00  0.040040  0.959960
   24.20   4000.00  0.040040  0.959960
   24.30   4000.00  0.040040  0.959960
   24.40   4000.00  0.040040  0.959960
   24.50   4000.00  0.041041  0.958959
   24.60   4000.00  0.041041  0.958959
   24.70   4000.00  0.041041  0.958959
   24.80   4000.00  0.041041  0.958959
   24.90   4000.00  0.041041  0.958959
   25.00   4000.00  0.041041  0.958959
   25.10   4000.00  0.041041  0.958959
   25.20   4000.00  0.041041  0.958959
   25.30   4000.00  0.041041  0.958959
   25.40   4000.00  0.041041  0.958959
   25.50   4000.00  0.041041  0.958959
   25.60   4000.00  0.042042  0.957958
   25.70   4000.00  0.042042  0.957958
   25.80   4000.00  0.042042  0.957958
   25.90   4000.00  0.042042  0.957958
   26.00   4000.00  0.042042  0.957958
   26.10   4000.00  0.042042  0.957958
   26.20   4000.00  0.042042  0.957958
   26.30   4000.00  0.042042  0.957958
   26.40   4000.00  0.042042  0.957958
   26.50   4000.00  0.042042  0.957958
   26.60   4000.00  0.043043  0.956957
   26.70   4000.00  0.043043  0.956957
   26.80   4000.00  0.043043  0.956957
   26.90   4000.00  0.043043  0.956957
   27.00   4000.00  0.043043  0.956957
   27.10   4000.00  0.043043  0.956957
   27.20   4000.00  0.043043  0.956957
   27.30   4000.00  0.043043  0.956957
   27.40   4000.00  0.043043  0.956957
   27.50   4000.00  0.044044  0.955956
   27.60   4000.00  0.044044  0.955956
   27.70   4000.00  0.044044  0.955956
   27.80   4000.00  0.044044  0.955956
   27.90   4000.00  0.044044  0.955956
   28.00   4000.00  0.044044  0.955956
   28.10   4000.00  0.044044  0.955956
   28.20   4000.00  0.044044  0.955956
   28.30   4000.00  0.044044  0.955956
   28.40   4000.00  0.044044  0.955956
   28.50   4000.00  0.045045  0.954955
   28.60   4000.00  0.045045  0.954955
   28.70   4000.00  0.045045  0.954955
   28.80   4000.00  0.045045  0.954955
   28.90   4000.00  0.045045  0.954955
   29.00   4000.00  0.045045  0.954955
   29.10   4000.00  0.045045  0.954955
   29.20   4000.00  0.045045  0.954955
   29.30   4000.00  0.046046  0.953954
   29.40   4000.00  0.046046  0.953954
   29.50   4000.00  0.046046  0.953954
   29.60   4000.00  0.046046  0.953954
   29.70   4000.00  0.046046  0.953954
   29.80   4000.00  0.046046  0.953954
   29.90   4000.00  0.046046  0.953954
   30.00   4000.00  0.046046  0.953954
   30.10   4000.00  0.046046  0.953954
   30.20   4000.00  0.047047  0.952953
   30.30   4000.00  0.047047  0.952953
   30.40   4000.00  0.047047  0.952953
   30.50   4000.00  0.047047  0.952953
   30.60   4000.00  0.047047  0.952953
   30.70   4000.00  0.047047  0.952953
   30.80   4000.00  0.047047  0.952953
   30.90   4000.00  0.047047  0.952953
   31.00   4000.00  0.048048  0.951952
   31.10   4000.00  0.048048  0.951952
   31.20   4000.00  0.048048  0.951952
   31.30   4000.00  0.048048  0.951952
   31.40   4000.00  0.048048  0.951952
   31.50   4000.00  0.048048  0.951952
   31.60   4000.00  0.048048  0.951952
   31.70   4000.00  0.048048  0.951952
   31.80   4000.00  0.049049  0.950951
   31.90   4000.00  0.049049  0.950951
   32.00   4000.00  0.049049  0.950951
   32.10   4000.00  0.049049  0.950951
   32.20   4000.00  0.049049  0.950951
   32.30   4000.00  0.049049  0.950951
   32.40   4000.00  0.049049  0.950951
   32.50   4000.00  0.049049  0.950951
   32.60   4000.00  0.050050  0.949950
   32.70   4000.00  0.050050  0.949950
   32.80   4000.00  0.050050  0.949950
   32.90   4000.00  0.050050  0.949950
   33.00   4000.00  0.050050  0.949950
   33.10   4000.00  0.050050  0.949950
   33.20   4000.00  0.050050  0.949950
   33.30   4000.00  0.051051  0.948949
   33.40   4000.00  0.051051  0.948949
   33.50   4000.00  0.051051  0.948949
   33.60   4000.00  0.051051  0.948949
   33.70   4000.00  0.051051  0.948949
   33.80   4000.00  0.051051  0.948949
   33.90   4000.00  0.051051  0.948949
   34.00   4000.00  0.052052  0.947948
   34.10   4000.00  0.052052  0.947948
   34.20   4000.00  0.052052  0.947948
   34.30   4000.00  0.052052  0.947948
   34.40   4000.00  0.052052  0.947948
   34.50   4000.00  0.052052  0.947948
   34.60   4000.00  0.052052  0.947948
   34.70   4000.00  0.053053  0.946947
   34.80   4000.00  0.053053  0.946947
   34.90   4000.00  0.053053  0.946947
   35.00   4000.00  0.053053  0.946947
   35.10   4000.00  0.053053  0.946947
   35.20   4000.00  0.053053  0.946947
   35.30   4000.00  0.053053  0.946947
   35.40   4000.00  0.054054  0.945946
   35.50   4000.00  0.054054  0.945946
   35.60   4000.00  0.054054  0.945946
   35.70   4000.00  0.054054  0.945946
   35.80   4000.00  0.054054  0.945946
   35.90   4000.00  0.054054  0.945946
   36.00   4000.00  0.055055  0.944945
   36.10   4000.00  0.055055  0.944945
   36.20   4000.00  0.055055  0.944945
   36.30   4000.00  0.055055  0.944945
   36.40   4000.00  0.055055  0.944945
   36.50   4000.00  0.055055  0.944945
   36.60   4000.00  0.055055  0.944945
   36.70   4000.00  0.056056  0.943944
   36.80   4000.00  0.056056  0.943944
   36.90   4000.00  0.056056  0.943944
   37.00   4000.00  0.056056  0.943944
   37.10   4000.00  0.056056  0.943944
   37.20   4000.00  0.056056  0.943944
   37.30   4000.00  0.057057  0.942943
   37.40   4000.00  0.057057  0.942943
   37.50   4000.00  0.057057  0.942943
   37.60   4000.00  0.057057  0.942943
   37.70   4000.00  0.057057  0.942943
   37.80   4000.00  0.057057  0.942943
   37.90   4000.00  0.058058  0.941942
   38.00   4000.00  0.058058  0.941942
   38.10   4000.00  0.058058  0.941942
   38.20   4000.00  0.058058  0.941942
   38.30   4000.00  0.058058  0.941942
   38.40   4000.00  0.058058  0.941942
   38.50   4000.00  0.059059  0.940941
   38.60   4000.00  0.059059  0.940941
   38.70   4000.00  0.059059  0.940941
   38.80   4000.00  0.059059  0.940941
   38.90   4000.00  0.059059  0.940941
   39.00   4000.00  0.060060  0.939940
   39.10   4000.00  0.060060  0.939940
   39.20   4000.00  0.060060  0.939940
   39.30   4000.00  0.060060  0.939940
   39.40   4000.00  0.060060  0.939940
   39.50   4000.00  0.060060  0.939940
   39.60   4000.00  0.061061  0.938939
   39.70   4000.00  0.061061  0.938939
   39.80   4000.00  0.061061  0.938939
   39.90   4000.00  0.061061  0.938939
   40.00   4000.00  0.061061  0.938939
   40.10   4000.00  0.061061  0.938939
   40.20   4000.00  0.062062  0.937938
   40.30   4000.00  0.062062  0.937938
   40.40   4000.00  0.062062  0.937938
   40.50   4000.00  0.062062  0.937938
   40.60   4000.00  0.062062  0.937938
   40.70   4000.00  0.063063  0.936937
   40.80   4000.00  0.063063  0.936937
   40.90   4000.00  0.063063  0.936937
   41.00   4000.00  0.063063  0.936937
   41.10   4000.00  0.063063  0.936937
   41.20   4000.00  0.064064  0.935936
   41.30   4000.00  0.064064  0.935936
   41.40   4000.00  0.064064  0.935936
   41.50   4000.00  0.064064  0.935936
   41.60   4000.00  0.064064  0.935936
   41.70   4000.00  0.065065  0.934935
   41.80   4000.00  0.065065  0.934935
   41.90   4000.00  0.065065  0.934935
   42.00   4000.00  0.065065  0.934935
   42.10   4000.00  0.065065  0.934935
   42.20   4000.00  0.066066  0.933934
   42.30   4000.00  0.066066  0.933934
   42.40   4000.00  0.066066  0.933934
   42.50   4000.00  0.066066  0.933934
   42.60   4000.00  0.066066  0.933934
   42.70   4000.00  0.067067  0.932933
   42.80   4000.00  0.067067  0.932933
   42.90   4000.00  0.067067  0.932933
   43.00   4000.00  0.067067  0.932933
   43.10   4000.00  0.067067  0.932933
   43.20   4000.00  0.068068  0.931932
   43.30   4000.00  0.068068  0.931932
   43.40   4000.00  0.068068  0.931932
   43.50   4000.00  0.068068  0.931932
   43.60   4000.00  0.068068  0.931932
   43.70   4000.00  0.069069  0.930931
   43.80   4000.00  0.069069  0.930931
   43.90   4000.00  0.069069  0.930931
   44.00   4000.00  0.069069  0.930931
   44.10   4000.00  0.070070  0.929930
   44.20   4000.00  0.070070  0.929930
   44.30   4000.00  0.070070  0.929930
   44.40   4000.00  0.070070  0.929930
   44.50   4000.00  0.070070  0.929930
   44.60   4000.00  0.071071  0.928929
   44.70   4000.00  0.071071  0.928929
   44.80   4000.00  0.071071  0.928929
   44.90   4000.00  0.071071  0.928929
   45.00   4000.00  0.072072  0.927928
   45.10   4000.00  0.072072  0.927928
   45.20   4000.00  0.072072  0.927928
   45.30   4000.00  0.072072  0.927928
   45.40   4000.00  0.072072  0.927928
   45.50   4000.00  0.073073  0.926927
   45.60   4000.00  0.073073  0.926927
   45.70   4000.00  0.073073  0.926927
   45.80   4000.00  0.073073  0.926927
   45.90   4000.00  0.074074  0.925926
   46.00   4000.00  0.074074  0.925926
   46.10   4000.00  0.074074  0.925926
   46.20   4000.00  0.074074  0.925926
   46.30   4000.00  0.075075  0.924925
   46.40   4000.00  0.075075  0.924925
   46.50   4000.00  0.075075  0.924925
   46.60   4000.00  0.075075  0.924925
   46.70   4000.00  0.076076  0.923924
   46.80   4000.00  0.076076  0.923924
   46.90   4000.00  0.076076  0.923924
   47.00   4000.00  0.076076  0.923924
   47.10   4000.00  0.077077  0.922923
   47.20   4000.00  0.077077  0.922923
   47.30   4000.00  0.077077  0.922923
   47.40   4000.00  0.077077  0.922923
   47.50   4000.00  0.078078  0.921922
   47.60   4000.00  0.078078  0.921922
   47.70   4000.00  0.078078  0.921922
   47.80   4000.00  0.078078  0.921922
   47.90   4000.00  0.079079  0.920921
   48.00   4000.00  0.079079  0.920921
   48.10   4000.00  0.079079  0.920921
   48.20   4000.00  0.079079  0.920921
   48.30   4000.00  0.080080  0.919920
   48.40   4000.00  0.080080  0.919920
   48.50   4000.00  0.080080  0.919920
   48.60   4000.00  0.080080  0.919920
   48.70   4000.00  0.081081  0.918919
   48.80   4000.00  0.081081  0.918919
   48.90   4000.00  0.081081  0.918919
   49.00   4000.00  0.081081  0.918919
   49.10   4000.00  0.082082  0.917918
   49.20   4000.00  0.082082  0.917918
   49.30   4000.00  0.082082  0.917918
   49.40   4000.00  0.083083  0.916917
   49.50   4000.00  0.083083  0.916917
   49.60   4000.00  0.083083  0.916917
   49.70   4000.00  0.083083  0.916917
   49.80   4000.00  0.084084  0.915916
   49.90   4000.00  0.084084  0.915916
   50.00   4000.00  0.084084  0.915916
   50.10   4000.00  0.085085  0.914915
   50.20   4000.00  0.085085  0.914915
   50.30   4000.00  0.085085  0.914915
   50.40   4000.00  0.085085  0.914915
   50.50   4000.00  0.086086  0.913914
   50.60   4000.00  0.086086  0.913914
   50.70   4000.00  0.086086  0.913914
   50.80   4000.00  0.087087  0.912913
   50.90   4000.00  0.087087  0.912913
   51.00   4000.00  0.087087  0.912913
